Depth (m)          Deflection (mm)                        
0.12000                 11.36628                        
0.24000                 11.30688                        
0.24000                 11.30688                        
0.36000                 11.21124                        
0.36000                 11.21124                        
0.48000                 11.08205                        
0.48000                 11.08205                        
0.60000                 10.92194                        
0.60000                 10.92194                        
0.72000                 10.73347                        
0.72000                 10.73347                        
0.84000                 10.51915                        
0.84000                 10.51915                        
0.96000                 10.28143                        
0.96000                 10.28143                        
1.08000                 10.02268                        
1.08000                 10.02268                        
1.20000                  9.74522                        
1.20000                  9.74522                        
1.32000                  9.45129                        
1.32000                  9.45129                        
1.44000                  9.14304                        
1.44000                  9.14304                        
1.56000                  8.82259                        
1.56000                  8.82259                        
1.68000                  8.49193                        
1.68000                  8.49193                        
1.80000                  8.15303                        
1.80000                  8.15303                        
1.92000                  7.80772                        
1.92000                  7.80772                        
2.04000                  7.45781                        
2.04000                  7.45781                        
2.16000                  7.10498                        
2.16000                  7.10498                        
2.28000                  6.75086                        
2.28000                  6.75086                        
2.40000                  6.39697                        
2.40000                  6.39697                        
2.52000                  6.04477                        
2.52000                  6.04477                        
2.64000                  5.69562                        
2.64000                  5.69562                        
2.76000                  5.35079                        
2.76000                  5.35079                        
2.88000                  5.01148                        
2.88000                  5.01148                        
3.00000                  4.67880                        
3.00000                  4.67880                        
3.12000                  4.35376                        
3.12000                  4.35376                        
3.24000                  4.03728                        
3.24000                  4.03728                        
3.36000                  3.73023                        
3.36000                  3.73023                        
3.48000                  3.43334                        
3.48000                  3.43334                        
3.60000                  3.14729                        
3.60000                  3.14729                        
3.72000                  2.87267                        
3.72000                  2.87267                        
3.84000                  2.60998                        
3.84000                  2.60998                        
3.96000                  2.35962                        
3.96000                  2.35962                        
4.08000                  2.12194                        
4.08000                  2.12194                        
4.20000                  1.89719                        
4.20000                  1.89719                        
4.32000                  1.68552                        
4.32000                  1.68552                        
4.44000                  1.48703                        
4.44000                  1.48703                        
4.56000                  1.30174                        
4.56000                  1.30174                        
4.68000                  1.12957                        
4.68000                  1.12957                        
4.80000                  0.97040                        
4.80000                  0.97040                        
4.92000                  0.82403                        
4.92000                  0.82403                        
5.04000                  0.69019                        
5.04000                  0.69019                        
5.16000                  0.56855                        
5.16000                  0.56855                        
5.28000                  0.45873                        
5.28000                  0.45873                        
5.40000                  0.36030                        
5.40000                  0.36030                        
5.52000                  0.27275                        
5.52000                  0.27275                        
5.64000                  0.19557                        
5.64000                  0.19557                        
5.76000                  0.12816                        
5.76000                  0.12816                        
5.88000                  0.06992                        
5.88000                  0.06992                        
6.00000                  0.02020                        
6.00000                  0.02020                        
6.12000                 -0.02167                        
6.12000                 -0.02167                        
6.24000                 -0.05636                        
6.24000                 -0.05636                        
6.36000                 -0.08453                        
6.36000                 -0.08453                        
6.48000                 -0.10685                        
6.48000                 -0.10685                        
6.60000                 -0.12394                        
6.60000                 -0.12394                        
6.72000                 -0.13639                        
6.72000                 -0.13639                        
6.84000                 -0.14476                        
6.84000                 -0.14476                        
6.96000                 -0.14958                        
6.96000                 -0.14958                        
7.08000                 -0.15136                        
7.08000                 -0.15136                        
7.20000                 -0.15055                        
7.20000                 -0.15055                        
7.32000                 -0.14758                        
7.32000                 -0.14758                        
7.44000                 -0.14284                        
7.44000                 -0.14284                        
7.56000                 -0.13668                        
7.56000                 -0.13668                        
7.68000                 -0.12944                        
7.68000                 -0.12944                        
7.80000                 -0.12140                        
7.80000                 -0.12140                        
7.92000                 -0.11282                        
7.92000                 -0.11282                        
8.04000                 -0.10392                        
8.04000                 -0.10392                        
8.16000                 -0.09490                        
8.16000                 -0.09490                        
8.28000                 -0.08592                        
8.28000                 -0.08592                        
8.40000                 -0.07712                        
8.40000                 -0.07712                        
8.52000                 -0.06860                        
8.52000                 -0.06860                        
8.64000                 -0.06045                        
8.64000                 -0.06045                        
8.76000                 -0.05274                        
8.76000                 -0.05274                        
8.88000                 -0.04551                        
8.88000                 -0.04551                        
9.00000                 -0.03880                        
9.00000                 -0.03880                        
9.12000                 -0.03261                        
9.12000                 -0.03261                        
9.24000                 -0.02696                        
9.24000                 -0.02696                        
9.36000                 -0.02184                        
9.36000                 -0.02184                        
9.48000                 -0.01724                        
9.48000                 -0.01724                        
9.60000                 -0.01314                        
9.60000                 -0.01314                        
9.72000                 -0.00951                        
9.72000                 -0.00951                        
9.84000                 -0.00632                        
9.84000                 -0.00632                        
9.96000                 -0.00355                        
9.96000                 -0.00355                        
10.08000                 -0.00116                        
10.08000                 -0.00116                        
10.20000                  0.00088                        
10.20000                  0.00088                        
10.32000                  0.00262                        
10.32000                  0.00262                        
10.44000                  0.00407                        
10.44000                  0.00407                        
10.56000                  0.00529                        
10.56000                  0.00529                        
10.68000                  0.00629                        
10.68000                  0.00629                        
10.80000                  0.00712                        
10.80000                  0.00712                        
10.92000                  0.00779                        
10.92000                  0.00779                        
11.04000                  0.00835                        
11.04000                  0.00835                        
11.16000                  0.00880                        
11.16000                  0.00880                        
11.28000                  0.00919                        
11.28000                  0.00919                        
11.40000                  0.00951                        
11.40000                  0.00951                        
11.52000                  0.00980                        
11.52000                  0.00980                        
11.64000                  0.01005                        
11.64000                  0.01005                        
11.76000                  0.01030                        
11.76000                  0.01030                        
11.88000                  0.01054                    

Depth (m)         Shear Force (kN)                        
0.12000                 98.22030                        
0.24000                 96.34586                        
0.24000                 96.34586                        
0.36000                 94.37909                        
0.36000                 94.37909                        
0.48000                 92.32259                        
0.48000                 92.32259                        
0.60000                 90.17917                        
0.60000                 90.17917                        
0.72000                 87.95175                        
0.72000                 87.95175                        
0.84000                 85.64347                        
0.84000                 85.64347                        
0.96000                 83.25757                        
0.96000                 83.25757                        
1.08000                 80.79747                        
1.08000                 80.79747                        
1.20000                 78.26670                        
1.20000                 78.26670                        
1.32000                 75.66894                        
1.32000                 75.66894                        
1.44000                 73.00798                        
1.44000                 73.00798                        
1.56000                 70.28773                        
1.56000                 70.28773                        
1.68000                 67.51223                        
1.68000                 67.51223                        
1.80000                 64.68560                        
1.80000                 64.68560                        
1.92000                 61.81208                        
1.92000                 61.81208                        
2.04000                 58.89602                        
2.04000                 58.89602                        
2.16000                 55.94182                        
2.16000                 55.94182                        
2.28000                 52.95402                        
2.28000                 52.95402                        
2.40000                 49.93722                        
2.40000                 49.93722                        
2.52000                 46.89611                        
2.52000                 46.89611                        
2.64000                 43.83544                        
2.64000                 43.83544                        
2.76000                 40.76007                        
2.76000                 40.76007                        
2.88000                 37.67490                        
2.88000                 37.67490                        
3.00000                 34.58491                        
3.00000                 34.58491                        
3.12000                 31.49517                        
3.12000                 31.49517                        
3.24000                 28.41078                        
3.24000                 28.41078                        
3.36000                 25.33693                        
3.36000                 25.33693                        
3.48000                 22.27886                        
3.48000                 22.27886                        
3.60000                 19.24190                        
3.60000                 19.24190                        
3.72000                 16.23140                        
3.72000                 16.23140                        
3.84000                 13.25283                        
3.84000                 13.25283                        
3.96000                 10.31170                        
3.96000                 10.31170                        
4.08000                  7.41363                        
4.08000                  7.41363                        
4.20000                  4.56431                        
4.20000                  4.56431                        
4.32000                  1.77717                        
4.32000                  1.77717                        
4.44000                 -0.91706                        
4.44000                 -0.91706                        
4.56000                 -3.49816                        
4.56000                 -3.49816                        
4.68000                 -5.96416                        
4.68000                 -5.96416                        
4.80000                 -8.31292                        
4.80000                 -8.31292                        
4.92000                -10.54212                        
4.92000                -10.54212                        
5.04000                -12.64912                        
5.04000                -12.64912                        
5.16000                -14.63087                        
5.16000                -14.63087                        
5.28000                -16.48364                        
5.28000                -16.48364                        
5.40000                -18.20280                        
5.40000                -18.20280                        
5.52000                -19.78227                        
5.52000                -19.78227                        
5.64000                -21.21369                        
5.64000                -21.21369                        
5.76000                -22.48502                        
5.76000                -22.48502                        
5.88000                -23.45041                        
5.88000                -23.45041                        
6.00000                -23.92595                        
6.00000                -23.92595                        
6.12000                -23.91140                        
6.12000                -23.91140                        
6.24000                -23.48730                        
6.24000                -23.48730                        
6.36000                -22.72697                        
6.36000                -22.72697                        
6.48000                -21.71996                        
6.48000                -21.71996                        
6.60000                -20.59031                        
6.60000                -20.59031                        
6.72000                -19.41649                        
6.72000                -19.41649                        
6.84000                -18.21332                        
6.84000                -18.21332                        
6.96000                -16.99230                        
6.96000                -16.99230                        
7.08000                -15.76265                        
7.08000                -15.76265                        
7.20000                -14.53199                        
7.20000                -14.53199                        
7.32000                -13.30668                        
7.32000                -13.30668                        
7.44000                -12.09218                        
7.44000                -12.09218                        
7.56000                -10.89315                        
7.56000                -10.89315                        
7.68000                 -9.71367                        
7.68000                 -9.71367                        
7.80000                 -8.55725                        
7.80000                 -8.55725                        
7.92000                 -7.42700                        
7.92000                 -7.42700                        
8.04000                 -6.32560                        
8.04000                 -6.32560                        
8.16000                 -5.27408                        
8.16000                 -5.27408                        
8.28000                 -4.30545                        
8.28000                 -4.30545                        
8.40000                 -3.43218                        
8.40000                 -3.43218                        
8.52000                 -2.65180                        
8.52000                 -2.65180                        
8.64000                 -1.96076                        
8.64000                 -1.96076                        
8.76000                 -1.35473                        
8.76000                 -1.35473                        
8.88000                 -0.82877                        
8.88000                 -0.82877                        
9.00000                 -0.37754                        
9.00000                 -0.37754                        
9.12000                  0.00456                        
9.12000                  0.00456                        
9.24000                  0.32325                        
